# Wilkinson Microwave Anisotropy Probe (WMAP) 9-year data release.
# WMAP 9-Year Combined Power Spectrum, version 5.0 (December 2012)
#
# References: - WMAP Explanatory Supplement: http://lambda.gsfc.nasa.gov/
#             - Bennett, et al. (2012)
#             - Hinshaw, et al. (2012)
#
# Column 1 = multipole moment l
# Column 2 = EE power spectrum, units = uK^2, =  l(l+1)/2pi * C_l.
# Column 3 = 'Error' derived from diagonal terms of Fisher matrix, units = uK^2.
#             Included only as an estimate of their magnitude.  The
#             multipole moments are slightly coupled, so a correct
#             treatment of errors requires use of the entire Fisher matrix.
# Column 4 = portion of column3 error attributed to measurement errors,
#             in "2SN + NN" form, units = uK^2.
# Column 5 = portion of column3 error attributed to cosmic variance, 
#             assuming the best-fit LCDM model
           2        -0.0860         0.0432         0.0247         0.0355
           3         0.0928         0.0608         0.0364         0.0488
           4         0.1892         0.0632         0.0426         0.0467
           5        -0.0106         0.0571         0.0445         0.0357
           6        -0.0071         0.0495         0.0438         0.0231
           7        -0.1308         0.0448         0.0429         0.0130
           8        -0.1001         0.0444         0.0439         0.0068
           9         0.2010         0.0475         0.0474         0.0039
          10        -0.2105         0.0528         0.0527         0.0029
          11        -0.0349         0.0590         0.0589         0.0026
          12         0.1743         0.0655         0.0654         0.0023
          13        -0.0653         0.0722         0.0721         0.0019
          14        -0.0216         0.0791         0.0791         0.0016
          15         0.6313         0.0864         0.0864         0.0014
          16         0.0148         0.0942         0.0941         0.0013
          17        -0.1903         0.1022         0.1022         0.0014
          18        -0.1577         0.1104         0.1104         0.0014
          19        -0.1423         0.1189         0.1189         0.0015
          20        -0.1336         0.1275         0.1275         0.0015
          21         0.4371         0.1365         0.1364         0.0016
          22        -0.0944         0.1457         0.1456         0.0017
          23         0.3378         0.1551         0.1551         0.0019
          24         0.0448         0.1648         0.1648         0.0022
          25         0.3524         0.1748         0.1748         0.0025
          26        -0.1315         0.1850         0.1850         0.0028
          27        -0.0267         0.1954         0.1954         0.0031
          28         0.0410         0.2061         0.2061         0.0035
          29         0.7491         0.2170         0.2169         0.0039
          30         0.5842         0.2281         0.2280         0.0043
          31         0.3237         0.2394         0.2394         0.0047
          32         0.5718         0.2509         0.2509         0.0052
          33         0.0933         0.2627         0.2626         0.0056
          34        -0.1429         0.2746         0.2746         0.0061
          35         0.5405         0.2869         0.2868         0.0066
          36         0.1440         0.2993         0.2992         0.0072
          37         0.0965         0.3119         0.3119         0.0078
          38        -0.5498         0.3248         0.3247         0.0084
          39        -0.3309         0.3379         0.3378         0.0091
          40         0.0973         0.3513         0.3511         0.0097
          41         0.5716         0.3648         0.3647         0.0105
          42         0.5101         0.3787         0.3785         0.0112
          43         0.2032         0.3927         0.3925         0.0120
          44         0.0270         0.4069         0.4067         0.0128
          45         0.4530         0.4214         0.4212         0.0136
          46        -0.2826         0.4361         0.4359         0.0144
          47         0.1842         0.4510         0.4507         0.0153
          48         1.2988         0.4661         0.4659         0.0162
          49         0.1909         0.4815         0.4812         0.0171
          50        -0.6751         0.4971         0.4968         0.0181
          51        -0.5011         0.5130         0.5126         0.0191
          52         0.7714         0.5290         0.5287         0.0201
          53         0.7583         0.5454         0.5449         0.0211
          54         0.0233         0.5619         0.5615         0.0222
          55        -0.4302         0.5787         0.5782         0.0233
          56         0.0521         0.5957         0.5952         0.0244
          57         0.6421         0.6129         0.6123         0.0255
          58        -0.1078         0.6303         0.6298         0.0267
          59        -0.6413         0.6480         0.6474         0.0279
          60         0.8170         0.6660         0.6653         0.0291
          61         1.6681         0.6841         0.6835         0.0303
          62        -1.0117         0.7025         0.7018         0.0316
          63         0.9346         0.7212         0.7204         0.0328
          64         0.5151         0.7400         0.7392         0.0341
          65         0.4883         0.7591         0.7583         0.0354
          66         0.8321         0.7785         0.7776         0.0367
          67         0.4796         0.7981         0.7972         0.0381
          68        -0.1984         0.8179         0.8169         0.0394
          69        -1.1860         0.8380         0.8370         0.0408
          70         0.5659         0.8582         0.8572         0.0422
          71         1.3451         0.8788         0.8777         0.0436
          72        -1.1645         0.8996         0.8985         0.0450
          73        -0.3139         0.9206         0.9194         0.0464
          74         1.1152         0.9419         0.9407         0.0478
          75         1.3358         0.9634         0.9621         0.0492
          76         2.0624         0.9851         0.9838         0.0507
          77         2.3957         1.0071         1.0058         0.0521
          78         1.1479         1.0294         1.0280         0.0535
          79        -0.5210         1.0518         1.0504         0.0550
          80         0.7164         1.0746         1.0731         0.0564
          81         1.4909         1.0976         1.0960         0.0578
          82         3.0111         1.1208         1.1192         0.0593
          83         2.9342         1.1443         1.1427         0.0607
          84        -0.2152         1.1680         1.1664         0.0622
          85         1.4643         1.1920         1.1903         0.0636
          86         1.8198         1.2162         1.2145         0.0650
          87        -1.0144         1.2407         1.2389         0.0664
          88         4.1415         1.2655         1.2636         0.0678
          89         2.4792         1.2905         1.2886         0.0692
          90        -0.1889         1.3157         1.3138         0.0706
          91         0.5760         1.3412         1.3393         0.0720
          92         2.3078         1.3670         1.3650         0.0733
          93         1.3309         1.3930         1.3910         0.0747
          94         2.3675         1.4194         1.4173         0.0760
          95        -2.5674         1.4459         1.4438         0.0773
          96         1.2779         1.4727         1.4706         0.0786
          97         1.5572         1.4998         1.4977         0.0798
          98         1.2302         1.5272         1.5250         0.0811
          99         2.7458         1.5548         1.5526         0.0823
         100        -1.6763         1.5827         1.5805         0.0835
         101         1.5008         1.6109         1.6087         0.0847
         102        -2.7354         1.6393         1.6371         0.0858
         103         0.4796         1.6681         1.6658         0.0869
         104        -2.8264         1.6971         1.6948         0.0880
         105         0.5704         1.7263         1.7240         0.0891
         106         2.4204         1.7559         1.7536         0.0901
         107        -3.2599         1.7857         1.7834         0.0911
         108         5.1121         1.8158         1.8135         0.0921
         109         1.7816         1.8463         1.8439         0.0930
         110         5.2664         1.8769         1.8746         0.0939
         111         5.7047         1.9080         1.9056         0.0948
         112        -0.7711         1.9392         1.9369         0.0956
         113         3.0352         1.9708         1.9685         0.0964
         114         3.4269         2.0027         2.0003         0.0972
         115         0.5023         2.0349         2.0325         0.0979
         116         3.4621         2.0673         2.0650         0.0986
         117         6.1645         2.1001         2.0978         0.0992
         118         2.0038         2.1332         2.1309         0.0998
         119         2.5192         2.1666         2.1643         0.1004
         120         4.7757         2.2003         2.1980         0.1009
         121         3.6107         2.2343         2.2320         0.1014
         122         0.4807         2.2686         2.2664         0.1018
         123        -1.9523         2.3033         2.3011         0.1022
         124        -4.4982         2.3383         2.3361         0.1026
         125        -1.4113         2.3736         2.3714         0.1029
         126         3.3964         2.4092         2.4070         0.1031
         127         5.1750         2.4452         2.4430         0.1033
         128         6.3404         2.4815         2.4794         0.1035
         129         3.8874         2.5182         2.5160         0.1037
         130        -0.4045         2.5551         2.5530         0.1037
         131        -0.4711         2.5925         2.5904         0.1038
         132        -1.4210         2.6302         2.6281         0.1038
         133        -0.0455         2.6682         2.6662         0.1038
         134        -1.0414         2.7066         2.7046         0.1037
         135         1.9693         2.7453         2.7434         0.1035
         136         4.5170         2.7844         2.7825         0.1034
         137         1.3388         2.8239         2.8220         0.1031
         138        -4.8685         2.8637         2.8619         0.1029
         139         4.5111         2.9040         2.9022         0.1026
         140         4.7418         2.9446         2.9428         0.1023
         141        -3.4915         2.9856         2.9838         0.1019
         142        -5.0070         3.0269         3.0252         0.1015
         143         3.1761         3.0687         3.0670         0.1010
         144        -4.5908         3.1109         3.1093         0.1005
         145        -0.2200         3.1535         3.1519         0.1000
         146         2.5714         3.1964         3.1949         0.0994
         147        10.6930         3.2398         3.2383         0.0988
         148         5.2001         3.2837         3.2822         0.0981
         149         2.9968         3.3279         3.3264         0.0975
         150        -6.1994         3.3725         3.3711         0.0967
         151        -0.9216         3.4176         3.4163         0.0960
         152         4.4296         3.4632         3.4619         0.0952
         153        -5.5841         3.5091         3.5079         0.0944
         154        -5.3818         3.5555         3.5543         0.0936
         155        -5.3339         3.6024         3.6012         0.0927
         156        12.2787         3.6498         3.6486         0.0918
         157        -5.4409         3.6976         3.6965         0.0909
         158         1.7587         3.7458         3.7448         0.0900
         159         5.7645         3.7946         3.7936         0.0890
         160        -4.1900         3.8438         3.8428         0.0880
         161         7.0586         3.8936         3.8926         0.0870
         162        -2.3259         3.9438         3.9428         0.0860
         163         2.5694         3.9945         3.9936         0.0850
         164         6.1798         4.0458         4.0449         0.0839
         165         2.8178         4.0975         4.0967         0.0829
         166         0.6080         4.1498         4.1490         0.0818
         167        -5.1495         4.2026         4.2018         0.0807
         168         3.0844         4.2559         4.2552         0.0796
         169         8.1783         4.3098         4.3091         0.0785
         170         3.2920         4.3643         4.3636         0.0774
         171        -3.2260         4.4192         4.4186         0.0763
         172         9.2756         4.4748         4.4742         0.0752
         173        -2.2841         4.5310         4.5304         0.0741
         174       -13.1952         4.5876         4.5870         0.0730
         175         3.3410         4.6450         4.6444         0.0719
         176         9.4586         4.7029         4.7023         0.0709
         177         2.9372         4.7614         4.7608         0.0698
         178         6.4724         4.8205         4.8200         0.0687
         179        -0.7327         4.8802         4.8798         0.0677
         180        -0.0763         4.9406         4.9401         0.0667
         181         0.1885         5.0015         5.0011         0.0657
         182         5.3942         5.0632         5.0628         0.0647
         183        -6.7669         5.1256         5.1252         0.0637
         184         8.1810         5.1886         5.1882         0.0628
         185        -4.7246         5.2522         5.2518         0.0619
         186        -5.5494         5.3165         5.3162         0.0610
         187         9.7744         5.3815         5.3811         0.0602
         188        -9.0504         5.4473         5.4470         0.0594
         189         2.7786         5.5136         5.5133         0.0586
         190        -0.3336         5.5810         5.5807         0.0579
         191         5.7683         5.6487         5.6484         0.0572
         192        -3.7517         5.7173         5.7170         0.0566
         193        -5.6807         5.7868         5.7866         0.0560
         194        -5.3161         5.8567         5.8565         0.0555
         195         7.4600         5.9277         5.9275         0.0550
         196        23.7121         5.9994         5.9992         0.0546
         197        13.2056         6.0719         6.0716         0.0542
         198         6.0703         6.1452         6.1450         0.0539
         199         1.2467         6.2192         6.2189         0.0537
         200         5.7474         6.2940         6.2938         0.0535
         201        -3.0226         6.3698         6.3695         0.0534
         202       -10.4323         6.4464         6.4462         0.0533
         203       -14.4604         6.5237         6.5234         0.0534
         204        18.9374         6.6021         6.6019         0.0535
         205        -0.5349         6.6812         6.6810         0.0536
         206        -6.6818         6.7611         6.7609         0.0539
         207        -0.5456         6.8422         6.8420         0.0542
         208         5.4640         6.9241         6.9238         0.0547
         209        10.6546         7.0066         7.0064         0.0552
         210        -7.3385         7.0903         7.0901         0.0558
         211         8.5683         7.1749         7.1747         0.0564
         212         8.0355         7.2605         7.2603         0.0572
         213        -8.0153         7.3469         7.3467         0.0581
         214       -10.2036         7.4344         7.4342         0.0591
         215         2.7940         7.5228         7.5225         0.0601
         216        -4.1324         7.6125         7.6122         0.0613
         217         9.9688         7.7028         7.7025         0.0626
         218        15.8411         7.7941         7.7939         0.0640
         219        10.1844         7.8867         7.8865         0.0655
         220        19.4658         7.9801         7.9798         0.0670
         221        -6.0448         8.0748         8.0745         0.0688
         222         7.6579         8.1704         8.1701         0.0706
         223        -5.8797         8.2671         8.2668         0.0725
         224       -10.1474         8.3648         8.3645         0.0746
         225       -12.0073         8.4636         8.4633         0.0767
         226        17.7895         8.5635         8.5632         0.0790
         227         3.3451         8.6646         8.6642         0.0814
         228         7.4719         8.7667         8.7663         0.0840
         229        -1.9308         8.8700         8.8696         0.0866
         230         5.5426         8.9744         8.9740         0.0894
         231        -4.6187         9.0800         9.0796         0.0923
         232        -4.3471         9.1868         9.1863         0.0953
         233         6.3566         9.2946         9.2941         0.0985
         234       -18.1590         9.4037         9.4031         0.1018
         235        10.4615         9.5139         9.5134         0.1052
         236         6.9459         9.6253         9.6247         0.1088
         237        31.6848         9.7381         9.7374         0.1125
         238        11.0007         9.8519         9.8512         0.1163
         239        -7.9715         9.9669         9.9662         0.1203
         240        -6.1908        10.0833        10.0826         0.1244
         241         1.8674        10.2008        10.2000         0.1286
         242        -7.5799        10.3197        10.3188         0.1330
         243       -19.3332        10.4399        10.4390         0.1375
         244        12.3327        10.5611        10.5602         0.1421
         245         1.7682        10.6838        10.6828         0.1469
         246         8.6182        10.8077        10.8066         0.1519
         247        11.6981        10.9331        10.9319         0.1569
         248        -7.6121        11.0596        11.0584         0.1621
         249         5.4507        11.1873        11.1861         0.1675
         250       -10.9891        11.3166        11.3153         0.1730
         251         6.6135        11.4471        11.4457         0.1786
         252        -6.2090        11.5789        11.5774         0.1844
         253         0.9627        11.7120        11.7104         0.1903
         254         1.6704        11.8466        11.8450         0.1964
         255        20.3713        11.9825        11.9808         0.2025
         256       -28.7595        12.1198        12.1180         0.2089
         257        26.8769        12.2585        12.2566         0.2153
         258        -1.8183        12.3986        12.3966         0.2220
         259        11.5527        12.5401        12.5381         0.2287
         260        28.3536        12.6830        12.6808         0.2356
         261         4.6739        12.8274        12.8251         0.2426
         262        33.1030        12.9733        12.9709         0.2497
         263         0.0256        13.1205        13.1180         0.2570
         264        -6.9820        13.2691        13.2665         0.2644
         265        18.3890        13.4194        13.4166         0.2720
         266         2.7049        13.5710        13.5681         0.2797
         267        34.6302        13.7240        13.7210         0.2875
         268        -6.2605        13.8787        13.8755         0.2954
         269        10.3636        14.0349        14.0316         0.3035
         270       -17.1026        14.1925        14.1890         0.3117
         271        -3.8775        14.3516        14.3481         0.3200
         272        20.1234        14.5125        14.5088         0.3285
         273        16.3500        14.6746        14.6707         0.3370
         274        -0.2043        14.8386        14.8345         0.3457
         275         0.9864        15.0039        14.9997         0.3545
         276        -3.9366        15.1710        15.1667         0.3634
         277       -26.6497        15.3396        15.3351         0.3724
         278         6.8536        15.5098        15.5051         0.3815
         279        -1.1932        15.6817        15.6768         0.3908
         280         0.0577        15.8551        15.8500         0.4001
         281       -13.5654        16.0303        16.0251         0.4096
         282        23.9497        16.2073        16.2018         0.4191
         283         8.7776        16.3855        16.3799         0.4288
         284         5.3258        16.5658        16.5600         0.4385
         285        63.9109        16.7478        16.7418         0.4484
         286       -46.6172        16.9313        16.9251         0.4583
         287        -5.4176        17.1167        17.1103         0.4683
         288        17.1005        17.3038        17.2972         0.4784
         289        41.8242        17.4926        17.4858         0.4886
         290        67.3865        17.6832        17.6762         0.4989
         291        -9.3115        17.8756        17.8684         0.5093
         292        49.6863        18.0697        18.0623         0.5197
         293        19.5595        18.2657        18.2580         0.5301
         294       -15.5128        18.4637        18.4558         0.5407
         295        -2.1349        18.6633        18.6551         0.5513
         296         2.7367        18.8648        18.8564         0.5620
         297        -3.5033        19.0682        19.0596         0.5727
         298        -0.2072        19.2736        19.2648         0.5835
         299        -5.5044        19.4808        19.4717         0.5944
         300        62.1842        19.6898        19.6805         0.6052
         301        20.5664        19.9009        19.8914         0.6162
         302        35.7453        20.1139        20.1041         0.6271
         303        -5.4194        20.3289        20.3189         0.6381
         304        25.2211        20.5459        20.5356         0.6492
         305       -45.7812        20.7648        20.7543         0.6603
         306        17.2995        20.9858        20.9750         0.6713
         307        16.0708        21.2087        21.1978         0.6825
         308       -29.2800        21.4338        21.4226         0.6936
         309        34.7915        21.6608        21.6494         0.7048
         310        31.3622        21.8900        21.8783         0.7159
         311        50.8436        22.1211        22.1092         0.7271
         312         1.1511        22.3546        22.3424         0.7382
         313        17.1090        22.5899        22.5775         0.7494
         314        40.4576        22.8274        22.8147         0.7606
         315         4.6141        23.0670        23.0541         0.7717
         316         9.6793        23.3090        23.2959         0.7828
         317        36.5503        23.5530        23.5396         0.7939
         318        17.0303        23.7991        23.7855         0.8050
         319        54.4622        24.0475        24.0336         0.8161
         320       -13.5100        24.2982        24.2841         0.8271
         321         7.7442        24.5510        24.5367         0.8381
         322        -3.4162        24.8059        24.7914         0.8490
         323        18.8175        25.0633        25.0485         0.8600
         324        -2.0221        25.3230        25.3080         0.8709
         325       -34.6169        25.5849        25.5697         0.8817
         326        58.2608        25.8490        25.8336         0.8924
         327        20.1051        26.1156        26.1000         0.9031
         328        23.9467        26.3844        26.3685         0.9138
         329        33.4271        26.6554        26.6394         0.9243
         330        32.6283        26.9290        26.9128         0.9348
         331       -14.6760        27.2051        27.1886         0.9452
         332        -9.5063        27.4832        27.4666         0.9555
         333        61.0326        27.7639        27.7471         0.9658
         334         8.8382        28.0470        28.0300         0.9759
         335        30.0110        28.3326        28.3154         0.9860
         336        84.0962        28.6205        28.6032         0.9959
         337        27.9111        28.9109        28.8934         1.0058
         338         7.5270        29.2039        29.1863         1.0156
         339        22.5396        29.4993        29.4815         1.0252
         340         1.9953        29.7972        29.7793         1.0347
         341       -12.7563        30.0978        30.0796         1.0442
         342        27.4477        30.4007        30.3825         1.0535
         343        -9.1646        30.7064        30.6880         1.0626
         344         5.4995        31.0145        30.9960         1.0717
         345        78.4269        31.3252        31.3065         1.0805
         346        27.3180        31.6386        31.6198         1.0893
         347        11.3539        31.9545        31.9357         1.0979
         348        15.4380        32.2731        32.2541         1.1064
         349        -7.7789        32.5943        32.5753         1.1147
         350        33.4654        32.9183        32.8992         1.1229
         351         4.4489        33.2450        33.2258         1.1309
         352       -27.3586        33.5743        33.5549         1.1387
         353        -9.5010        33.9065        33.8871         1.1464
         354        42.3051        34.2413        34.2218         1.1539
         355        12.2847        34.5791        34.5596         1.1613
         356       -57.3610        34.9196        34.9000         1.1685
         357         9.1352        35.2631        35.2435         1.1755
         358       -50.1392        35.6089        35.5893         1.1824
         359        36.7176        35.9580        35.9383         1.1890
         360       -16.3602        36.3096        36.2899         1.1955
         361        58.6874        36.6645        36.6448         1.2018
         362        46.1711        37.0222        37.0025         1.2079
         363       -10.2981        37.3829        37.3632         1.2138
         364       126.4012        37.7463        37.7266         1.2195
         365        62.2302        38.1127        38.0931         1.2250
         366       -17.1503        38.4825        38.4628         1.2304
         367        -7.2005        38.8549        38.8352         1.2354
         368        85.3788        39.2307        39.2111         1.2403
         369        23.4500        39.6094        39.5898         1.2451
         370         3.4356        39.9911        39.9716         1.2495
         371        80.2354        40.3758        40.3564         1.2538
         372         0.8051        40.7640        40.7445         1.2579
         373        44.2684        41.1551        41.1357         1.2617
         374       -16.8720        41.5494        41.5301         1.2654
         375       -48.6567        41.9470        41.9278         1.2688
         376       109.4997        42.3478        42.3287         1.2720
         377        41.9240        42.7515        42.7324         1.2750
         378       -18.9520        43.1591        43.1402         1.2777
         379       -27.4148        43.5698        43.5510         1.2802
         380        95.7526        43.9835        43.9648         1.2825
         381        -1.9362        44.4015        44.3829         1.2846
         382        -7.6977        44.8216        44.8031         1.2864
         383        -6.7249        45.2461        45.2277         1.2881
         384       158.2280        45.6733        45.6551         1.2894
         385       121.6413        46.1035        46.0854         1.2905
         386         3.0287        46.5388        46.5209         1.2915
         387       -50.3172        46.9765        46.9587         1.2922
         388       -27.9009        47.4171        47.3995         1.2926
         389        47.9540        47.8622        47.8448         1.2928
         390        46.5274        48.3109        48.2936         1.2928
         391        48.8056        48.7628        48.7456         1.2926
         392       111.0452        49.2184        49.2014         1.2921
         393         6.7457        49.6781        49.6613         1.2914
         394         5.0022        50.1404        50.1238         1.2905
         395        -4.3622        50.6077        50.5913         1.2893
         396        32.9737        51.0782        51.0620         1.2880
         397       136.2345        51.5528        51.5367         1.2864
         398        83.9971        52.0301        52.0142         1.2845
         399       -26.5253        52.5121        52.4964         1.2824
         400       -41.1255        52.9989        52.9834         1.2802
         401        41.3678        53.4878        53.4725         1.2776
         402        74.1616        53.9812        53.9661         1.2749
         403        72.5746        54.4785        54.4637         1.2719
         404      -113.4751        54.9796        54.9649         1.2687
         405        59.2744        55.4850        55.4706         1.2653
         406       112.5001        55.9945        55.9803         1.2617
         407        50.3747        56.5074        56.4934         1.2578
         408         9.8506        57.0254        57.0116         1.2538
         409       -41.7932        57.5478        57.5343         1.2495
         410        74.2460        58.0732        58.0599         1.2450
         411       -54.0839        58.6028        58.5897         1.2403
         412       -15.6539        59.1385        59.1256         1.2354
         413       196.6847        59.6767        59.6640         1.2303
         414        30.7032        60.2190        60.2066         1.2250
         415       -36.4386        60.7671        60.7549         1.2195
         416        10.4370        61.3186        61.3066         1.2138
         417        96.0962        61.8738        61.8620         1.2079
         418        17.6629        62.4351        62.4236         1.2018
         419        -4.1787        63.0008        62.9894         1.1956
         420       -53.0658        63.5700        63.5589         1.1891
         421        71.7927        64.1446        64.1337         1.1825
         422        14.3328        64.7229        64.7123         1.1756
         423      -109.2629        65.3067        65.2962         1.1686
         424       -19.1197        65.8953        65.8850         1.1614
         425        97.4291        66.4880        66.4780         1.1541
         426       -69.8551        67.0849        67.0751         1.1465
         427       111.8624        67.6894        67.6798         1.1389
         428       -21.3733        68.2958        68.2864         1.1310
         429      -115.2994        68.9090        68.8998         1.1230
         430       113.9478        69.5270        69.5181         1.1149
         431       144.1655        70.1492        70.1404         1.1066
         432       -41.5142        70.7774        70.7689         1.0981
         433       -14.0077        71.4110        71.4027         1.0896
         434       -40.1305        72.0473        72.0392         1.0809
         435       203.6723        72.6915        72.6836         1.0721
         436       156.8088        73.3412        73.3335         1.0631
         437       -92.5870        73.9956        73.9881         1.0541
         438       -15.7589        74.6545        74.6472         1.0449
         439       -15.8925        75.3194        75.3123         1.0356
         440        28.8764        75.9916        75.9847         1.0262
         441       -19.2308        76.6671        76.6604         1.0167
         442         2.7634        77.3484        77.3418         1.0070
         443        98.6182        78.0355        78.0292         0.9973
         444         3.1656        78.7299        78.7237         0.9876
         445       -11.0858        79.4295        79.4235         0.9776
         446        -8.6524        80.1341        80.1282         0.9677
         447       155.6153        80.8446        80.8389         0.9577
         448      -136.1675        81.5621        81.5566         0.9476
         449       256.0699        82.2841        82.2787         0.9374
         450       206.5579        83.0139        83.0087         0.9272
         451       100.8928        83.7486        83.7436         0.9169
         452       -97.3306        84.4903        84.4854         0.9065
         453      -101.1207        85.2377        85.2330         0.8961
         454       197.1405        85.9899        85.9853         0.8857
         455       167.6980        86.7505        86.7461         0.8753
         456       -28.0047        87.5160        87.5117         0.8648
         457      -126.3056        88.2896        88.2854         0.8542
         458       -24.0358        89.0687        89.0647         0.8437
         459       -11.1092        89.8548        89.8510         0.8332
         460        26.1155        90.6475        90.6438         0.8227
         461       -24.6154        91.4478        91.4442         0.8121
         462        93.9041        92.2526        92.2491         0.8016
         463       -23.4736        93.0669        93.0635         0.7910
         464       -21.7942        93.8859        93.8826         0.7805
         465      -228.7780        94.7114        94.7082         0.7700
         466      -174.2791        95.5447        95.5417         0.7595
         467       167.6241        96.3855        96.3826         0.7491
         468       -15.2480        97.2327        97.2299         0.7387
         469       206.7079        98.0871        98.0844         0.7283
         470      -271.9538        98.9488        98.9462         0.7179
         471      -160.4796        99.8187        99.8162         0.7077
         472       -25.3378       100.6945       100.6921         0.6974
         473        79.1739       101.5792       101.5769         0.6873
         474      -141.4213       102.4681       102.4658         0.6772
         475       -53.1594       103.3668       103.3647         0.6672
         476         9.9983       104.2744       104.2723         0.6573
         477       303.6389       105.1879       105.1859         0.6474
         478        47.6559       106.1070       106.1051         0.6377
         479      -120.3449       107.0369       107.0350         0.6280
         480        10.8547       107.9734       107.9716         0.6184
         481       -81.7479       108.9170       108.9153         0.6090
         482        57.8225       109.8682       109.8665         0.5996
         483       200.5965       110.8274       110.8258         0.5904
         484       139.4044       111.7953       111.7938         0.5813
         485       170.9628       112.7719       112.7704         0.5723
         486       309.3065       113.7546       113.7532         0.5634
         487       -54.2704       114.7486       114.7473         0.5547
         488       370.7745       115.7480       115.7467         0.5461
         489       264.6709       116.7551       116.7539         0.5377
         490       -86.9647       117.7711       117.7699         0.5294
         491      -162.6165       118.7958       118.7947         0.5213
         492       -97.9150       119.8310       119.8299         0.5133
         493       188.4479       120.8706       120.8695         0.5055
         494       314.0455       121.9206       121.9195         0.4978
         495      -173.8322       122.9792       122.9782         0.4903
         496       154.8160       124.0458       124.0449         0.4831
         497        84.4933       125.1235       125.1226         0.4760
         498       185.7394       126.2069       126.2060         0.4690
         499       410.6040       127.3005       127.2997         0.4623
         500      -240.4943       128.4039       128.4031         0.4557
         501      -127.6372       129.5155       129.5147         0.4493
         502       195.0100       130.6348       130.6340         0.4432
         503        63.2750       131.7624       131.7616         0.4372
         504       -17.3753       132.9021       132.9014         0.4314
         505       -75.7291       134.0481       134.0475         0.4259
         506       -70.6512       135.2037       135.2030         0.4206
         507       221.6553       136.3716       136.3710         0.4155
         508       -54.6902       137.5455       137.5449         0.4106
         509      -213.4944       138.7301       138.7296         0.4059
         510      -168.0224       139.9222       139.9216         0.4015
         511       399.3070       141.1247       141.1241         0.3973
         512       133.3185       142.3391       142.3386         0.3933
         513       463.0570       143.5600       143.5594         0.3896
         514       216.3129       144.7918       144.7913         0.3861
         515       -49.4363       146.0335       146.0330         0.3828
         516      -129.1741       147.2855       147.2850         0.3798
         517      -449.6521       148.5470       148.5465         0.3770
         518       -83.5138       149.8181       149.8176         0.3745
         519       -21.2400       151.0975       151.0971         0.3722
         520       130.3193       152.3868       152.3863         0.3702
         521       -35.7917       153.6881       153.6877         0.3684
         522      -288.5088       155.0002       154.9998         0.3669
         523      -115.6708       156.3190       156.3186         0.3657
         524       218.7815       157.6493       157.6489         0.3647
         525      -362.9485       158.9900       158.9896         0.3640
         526       203.0017       160.3421       160.3417         0.3635
         527       -28.5000       161.7030       161.7026         0.3633
         528      -229.1063       163.0739       163.0735         0.3633
         529       111.1312       164.4566       164.4562         0.3637
         530       183.5949       165.8486       165.8482         0.3643
         531       -64.7474       167.2498       167.2494         0.3651
         532       406.0883       168.6631       168.6627         0.3662
         533       128.1647       170.0890       170.0886         0.3676
         534      -123.0925       171.5205       171.5201         0.3693
         535       -97.6503       172.9658       172.9654         0.3712
         536       361.7248       174.4208       174.4204         0.3734
         537       184.6080       175.8880       175.8876         0.3758
         538        36.9258       177.3630       177.3626         0.3785
         539      -313.8613       178.8503       178.8499         0.3815
         540        39.5000       180.3502       180.3498         0.3848
         541       332.2605       181.8598       181.8594         0.3883
         542       101.7830       183.3788       183.3784         0.3921
         543      -423.0387       184.9104       184.9100         0.3962
         544       510.8402       186.4541       186.4536         0.4005
         545      -215.9530       188.0073       188.0069         0.4051
         546      -102.8500       189.5705       189.5701         0.4099
         547      -210.8090       191.1453       191.1449         0.4150
         548        87.1536       192.7330       192.7325         0.4204
         549        85.5298       194.3309       194.3304         0.4260
         550       238.5971       195.9408       195.9403         0.4319
         551        -4.5402       197.5646       197.5642         0.4380
         552       453.8806       199.1964       199.1959         0.4444
         553       331.0934       200.8413       200.8408         0.4510
         554       383.2664       202.4962       202.4957         0.4579
         555      -379.9266       204.1632       204.1626         0.4650
         556      -153.8841       205.8441       205.8436         0.4724
         557      -209.4723       207.5340       207.5334         0.4800
         558      -323.7171       209.2374       209.2368         0.4878
         559      -281.9283       210.9526       210.9520         0.4959
         560      -161.7693       212.6819       212.6813         0.5042
         561      -318.3406       214.4199       214.4193         0.5128
         562       119.6048       216.1747       216.1740         0.5216
         563       126.7700       217.9396       217.9389         0.5305
         564       274.6980       219.7172       219.7165         0.5397
         565      -401.7917       221.5046       221.5039         0.5492
         566       403.8763       223.3089       223.3082         0.5589
         567       243.2614       225.1229       225.1222         0.5687
         568      -237.0456       226.9506       226.9498         0.5787
         569      -154.8726       228.7946       228.7939         0.5890
         570       108.9812       230.6485       230.6477         0.5995
         571       332.4063       232.5173       232.5165         0.6101
         572       -66.0400       234.3978       234.3969         0.6210
         573       -73.0215       236.2927       236.2919         0.6320
         574       221.1817       238.2008       238.1999         0.6432
         575      -221.9574       240.1239       240.1230         0.6546
         576       182.9494       242.0601       242.0591         0.6662
         577       373.9056       244.0088       244.0079         0.6779
         578       329.3947       245.9731       245.9721         0.6898
         579       231.8697       247.9503       247.9493         0.7019
         580      -424.4138       249.9455       249.9445         0.7141
         581       -99.9947       251.9515       251.9505         0.7265
         582       640.1439       253.9751       253.9740         0.7390
         583      -526.1562       256.0127       256.0116         0.7517
         584       -24.5051       258.0646       258.0634         0.7644
         585      -384.0203       260.1330       260.1319         0.7773
         586        65.6612       262.2140       262.2128         0.7904
         587       -19.1186       264.3124       264.3112         0.8035
         588      -208.3355       266.4254       266.4241         0.8168
         589       392.9809       268.5558       268.5545         0.8302
         590        15.5010       270.7001       270.6988         0.8437
         591       512.7157       272.8588       272.8575         0.8573
         592       -97.5652       275.0353       275.0339         0.8710
         593        69.6626       277.2291       277.2277         0.8847
         594       236.3293       279.4404       279.4390         0.8986
         595        55.4822       281.6663       281.6648         0.9125
         596      -145.0246       283.9075       283.9060         0.9266
         597      -585.8772       286.1672       286.1656         0.9406
         598        24.1546       288.4424       288.4408         0.9547
         599       243.8818       290.7345       290.7329         0.9689
         600      -168.4385       293.0461       293.0445         0.9832
         601       -88.5614       295.3743       295.3726         0.9975
         602       207.6770       297.7166       297.7149         1.0118
         603       161.4371       300.0810       300.0793         1.0261
         604        73.6097       302.4611       302.4594         1.0405
         605       325.4437       304.8590       304.8572         1.0549
         606       -24.7272       307.2773       307.2754         1.0692
         607        29.5062       309.7085       309.7066         1.0837
         608       620.6016       312.1616       312.1597         1.0981
         609       403.4160       314.6322       314.6302         1.1125
         610       -78.5335       317.1198       317.1178         1.1268
         611      -309.9553       319.6307       319.6286         1.1412
         612       695.9729       322.1554       322.1533         1.1556
         613      -384.9675       324.7010       324.6989         1.1699
         614      -205.5516       327.2654       327.2632         1.1842
         615       451.5321       329.8484       329.8462         1.1984
         616       401.1252       332.4498       332.4476         1.2126
         617       -95.9425       335.0720       335.0697         1.2268
         618      -277.5794       337.7141       337.7118         1.2409
         619      -242.8990       340.3747       340.3724         1.2549
         620       733.5119       343.0539       343.0516         1.2689
         621        40.9275       345.7537       345.7513         1.2828
         622       434.7917       348.4740       348.4715         1.2966
         623       -65.1934       351.2153       351.2129         1.3103
         624      -399.4220       353.9770       353.9745         1.3239
         625       563.9973       356.7551       356.7526         1.3375
         626      -126.8439       359.5571       359.5545         1.3509
         627       627.0746       362.3796       362.3771         1.3642
         628      -559.4979       365.2226       365.2200         1.3775
         629      -476.5402       368.0847       368.0821         1.3906
         630      -918.4189       370.9673       370.9647         1.4036
         631       621.7596       373.8736       373.8709         1.4164
         632       296.6067       376.7999       376.7971         1.4291
         633       273.7825       379.7458       379.7431         1.4417
         634       222.8560       382.7157       382.7129         1.4541
         635      -151.2492       385.7059       385.7031         1.4664
         636       696.5367       388.7204       388.7176         1.4785
         637      -121.7296       391.7525       391.7496         1.4904
         638        52.0757       394.8081       394.8052         1.5022
         639       466.6204       397.8884       397.8855         1.5139
         640         0.7134       400.9905       400.9876         1.5253
         641       286.8470       404.1137       404.1108         1.5366
         642       304.6702       407.2597       407.2568         1.5476
         643       785.4534       410.4300       410.4271         1.5585
         644      -345.3418       413.6202       413.6173         1.5692
         645      -405.1841       416.8379       416.8349         1.5797
         646       269.6855       420.0785       420.0755         1.5901
         647       579.1978       423.3387       423.3357         1.6001
         648       175.6767       426.6226       426.6195         1.6099
         649       158.4091       429.9349       429.9319         1.6196
         650        21.0737       433.2692       433.2662         1.6290
         651        79.2995       436.6282       436.6251         1.6382
         652       230.6960       440.0099       440.0068         1.6472
         653      -418.3086       443.4171       443.4140         1.6559
         654       -77.2758       446.8483       446.8452         1.6644
         655       228.5700       450.3058       450.3027         1.6727
         656       340.5938       453.7856       453.7824         1.6808
         657      -123.7547       457.2931       457.2900         1.6886
         658       811.6066       460.8272       460.8241         1.6961
         659      -398.9439       464.3836       464.3804         1.7035
         660       254.5592       467.9676       467.9645         1.7105
         661      -518.5463       471.5814       471.5783         1.7173
         662       667.4998       475.2168       475.2137         1.7239
         663      -232.0755       478.8754       478.8723         1.7302
         664        -8.2646       482.5653       482.5622         1.7362
         665       649.8494       486.2822       486.2791         1.7420
         666     -1173.0020       490.0236       490.0205         1.7475
         667      -624.0562       493.7966       493.7935         1.7527
         668       277.9700       497.5906       497.5875         1.7577
         669      -476.2981       501.4179       501.4148         1.7624
         670      -395.4875       505.2715       505.2684         1.7669
         671       427.9384       509.1476       509.1445         1.7710
         672       145.7449       513.0578       513.0547         1.7749
         673       349.4889       516.9944       516.9913         1.7785
         674      -215.2734       520.9571       520.9541         1.7818
         675      -526.0210       524.9505       524.9475         1.7848
         676       246.3167       528.9744       528.9713         1.7876
         677      -142.0662       533.0237       533.0207         1.7901
         678       762.8346       537.1037       537.1007         1.7923
         679     -1088.2670       541.2148       541.2119         1.7942
         680      -749.1691       545.3525       545.3495         1.7959
         681      -776.4069       549.5168       549.5139         1.7972
         682      -345.8322       553.7175       553.7146         1.7982
         683      1153.0090       557.9447       557.9418         1.7990
         684       -92.5271       562.2029       562.2001         1.7994
         685        56.0368       566.4893       566.4865         1.7996
         686       785.0180       570.8066       570.8037         1.7995
         687      -351.8108       575.1576       575.1548         1.7991
         688      -118.7463       579.5329       579.5301         1.7984
         689       672.8284       583.9471       583.9443         1.7975
         690      1509.3190       588.3842       588.3814         1.7963
         691      -639.5621       592.8581       592.8553         1.7947
         692      -670.5028       597.3619       597.3592         1.7929
         693      1369.7860       601.8972       601.8945         1.7909
         694       167.5089       606.4599       606.4572         1.7885
         695        41.4359       611.0581       611.0555         1.7859
         696      1102.4260       615.6866       615.6840         1.7830
         697     -1374.0340       620.3501       620.3475         1.7798
         698      -845.3240       625.0335       625.0309         1.7764
         699      -846.4615       629.7729       629.7704         1.7727
         700       422.3236       634.5329       634.5304         1.7687
         701      1761.3810       639.3257       639.3233         1.7644
         702      -547.5148       644.1397       644.1373         1.7599
         703       307.8873       648.9805       648.9781         1.7550
         704       982.9510       653.8710       653.8686         1.7500
         705      1333.0110       658.8133       658.8110         1.7448
         706     -1836.1390       663.7515       663.7492         1.7391
         707       745.8362       668.7421       668.7398         1.7333
         708       502.3456       673.7734       673.7712         1.7273
         709       309.5389       678.8167       678.8145         1.7210
         710      -475.8695       683.8989       683.8968         1.7144
         711       285.9217       689.0381       689.0360         1.7076
         712      1346.3800       694.1863       694.1842         1.7006
         713       628.6003       699.3956       699.3936         1.6934
         714      -270.4218       704.6128       704.6108         1.6859
         715     -1427.2780       709.8648       709.8628         1.6781
         716     -1111.5520       715.1815       715.1795         1.6702
         717      -641.9603       720.5024       720.5005         1.6620
         718        77.5512       725.8576       725.8557         1.6536
         719     -1067.9460       731.2765       731.2746         1.6450
         720     -1436.3170       736.7031       736.7013         1.6362
         721       948.6223       742.1600       742.1582         1.6271
         722      -537.3485       747.6565       747.6548         1.6179
         723      1353.2620       753.2138       753.2120         1.6085
         724      -621.5469       758.7748       758.7731         1.5988
         725       974.5459       764.4025       764.4009         1.5890
         726      -631.0903       770.0599       770.0583         1.5791
         727      1006.0090       775.7561       775.7545         1.5689
         728       510.7988       781.4836       781.4821         1.5586
         729       420.4535       787.2503       787.2488         1.5481
         730        51.1112       793.0484       793.0469         1.5374
         731      -856.3201       798.8782       798.8768         1.5265
         732     -1620.1450       804.7742       804.7728         1.5156
         733       823.6868       810.6762       810.6748         1.5045
         734      -191.3117       816.6411       816.6398         1.4932
         735       480.8783       822.6373       822.6359         1.4818
         736       -97.5185       828.6707       828.6694         1.4702
         737        53.6974       834.7375       834.7362         1.4586
         738       826.4358       840.8385       840.8372         1.4468
         739      -577.8098       847.0307       847.0295         1.4349
         740      -643.6221       853.1976       853.1964         1.4228
         741     -1104.1160       859.4303       859.4291         1.4107
         742      -749.0953       865.6956       865.6945         1.3984
         743      -364.3818       872.0264       872.0253         1.3861
         744      -474.6920       878.3609       878.3598         1.3736
         745      1368.4610       884.7553       884.7543         1.3611
         746      -239.6038       891.2150       891.2140         1.3486
         747      -338.7440       897.6779       897.6769         1.3359
         748      -855.7766       904.2026       904.2016         1.3232
         749        -7.9452       910.7643       910.7634         1.3103
         750      1011.7360       917.3868       917.3859         1.2975
         751       441.5651       924.0122       924.0113         1.2846
         752       824.3978       930.7015       930.7006         1.2716
         753     -2004.8970       937.4507       937.4499         1.2586
         754     -1629.7990       944.2371       944.2363         1.2456
         755       462.8289       951.0579       951.0571         1.2325
         756      -949.7467       957.9348       957.9340         1.2195
         757       997.3546       964.8157       964.8149         1.2063
         758      -651.1022       971.7902       971.7894         1.1932
         759      1813.6740       978.8007       978.8000         1.1801
         760      -560.8898       985.8353       985.8346         1.1670
         761     -2350.3010       992.9670       992.9663         1.1539
         762        84.7944      1000.0967      1000.0961         1.1408
         763       608.6558      1007.2657      1007.2651         1.1277
         764       658.5954      1014.5173      1014.5167         1.1147
         765      -178.9978      1021.8067      1021.8061         1.1017
         766      1231.1050      1029.1270      1029.1264         1.0887
         767      -586.5416      1036.5023      1036.5017         1.0757
         768      2605.6060      1043.9158      1043.9152         1.0628
         769       654.1912      1051.3876      1051.3871         1.0499
         770       923.4723      1058.8868      1058.8863         1.0371
         771      1971.0810      1066.4500      1066.4495         1.0243
         772      -269.6905      1074.1051      1074.1046         1.0117
         773       575.9164      1081.7275      1081.7270         0.9990
         774      -530.4021      1089.4397      1089.4392         0.9865
         775      1921.7770      1097.2435      1097.2431         0.9741
         776       467.2956      1105.0485      1105.0481         0.9618
         777      -501.8133      1112.9064      1112.9060         0.9495
         778       870.8275      1120.8306      1120.8303         0.9373
         779     -1557.9370      1128.7812      1128.7808         0.9253
         780     -4240.7970      1136.7877      1136.7874         0.9133
         781       201.8108      1144.8555      1144.8552         0.9015
         782      2280.1630      1152.9890      1152.9887         0.8898
         783      1654.1810      1161.1375      1161.1371         0.8782
         784       -69.2331      1169.3885      1169.3881         0.8668
         785      -736.8361      1177.6537      1177.6534         0.8554
         786     -1732.3700      1185.9816      1185.9813         0.8443
         787       899.7983      1194.3745      1194.3742         0.8332
         788      -171.5564      1202.8187      1202.8184         0.8223
         789      -786.1009      1211.2887      1211.2885         0.8116
         790      1255.5300      1219.8476      1219.8473         0.8010
         791       408.4894      1228.4324      1228.4322         0.7905
         792      1271.3460      1237.0682      1237.0680         0.7802
         793       102.3284      1245.8048      1245.8045         0.7702
         794     -1748.2540      1254.5288      1254.5285         0.7602
         795        -5.9435      1263.3655      1263.3653         0.7505
         796      -432.1655      1272.2031      1272.2029         0.7410
         797        65.6093      1281.1502      1281.1500         0.7316
         798      1107.7430      1290.1406      1290.1404         0.7225
         799     -1840.2090      1299.1599      1299.1597         0.7136
         800     -1180.3430      1308.2449      1308.2447         0.7048
         801       504.7917      1317.4167      1317.4165         0.6962
         802      3610.0980      1326.6132      1326.6130         0.6879
         803     -2500.8920      1335.8960      1335.8958         0.6797
         804      -769.2308      1345.2256      1345.2255         0.6718
         805      1672.5410      1354.5774      1354.5773         0.6640
         806        52.1854      1364.0152      1364.0150         0.6565
         807      1173.0290      1373.5417      1373.5416         0.6492
         808       537.6614      1383.0889      1383.0888         0.6422
         809       935.3447      1392.6825      1392.6823         0.6353
         810      1914.0760      1402.3611      1402.3609         0.6287
         811      3610.8880      1412.1272      1412.1271         0.6224
         812     -2691.4470      1421.8714      1421.8713         0.6163
         813      2200.7570      1431.7435      1431.7434         0.6104
         814     -3827.0390      1441.6822      1441.6821         0.6047
         815     -1536.7670      1451.6404      1451.6403         0.5993
         816      2505.4070      1461.6626      1461.6625         0.5942
         817      -284.1328      1471.7488      1471.7487         0.5892
         818     -1788.1520      1481.9203      1481.9201         0.5846
         819      -439.8369      1492.1554      1492.1553         0.5801
         820      2816.4250      1502.4073      1502.4072         0.5759
         821       346.0926      1512.7681      1512.7679         0.5720
         822     -1764.2550      1523.1688      1523.1687         0.5684
         823       546.7532      1533.6309      1533.6308         0.5649
         824     -1030.7290      1544.1546      1544.1545         0.5618
         825     -1775.5970      1554.7640      1554.7639         0.5589
         826      -373.9056      1565.4319      1565.4318         0.5562
         827      -737.1111      1576.1173      1576.1172         0.5538
         828        -1.4405      1586.9084      1586.9083         0.5517
         829     -2100.6240      1597.7814      1597.7813         0.5499
         830       -92.7993      1608.6919      1608.6918         0.5483
         831      1714.0810      1619.6846      1619.6845         0.5469
         832       503.8279      1630.7149      1630.7148         0.5458
         833      2504.2330      1641.8274      1641.8273         0.5450
         834     -2110.7800      1652.9948      1652.9947         0.5444
         835     -1891.4760      1664.2449      1664.2448         0.5442
         836     -1320.7560      1675.5769      1675.5768         0.5441
         837      3106.2750      1686.9632      1686.9632         0.5444
         838     -2454.7720      1698.3835      1698.3834         0.5449
         839       388.6837      1709.8839      1709.8839         0.5456
         840     -2995.2170      1721.4851      1721.4851         0.5467
         841      1802.2390      1733.1683      1733.1682         0.5479
         842     -1835.1160      1744.8836      1744.8835         0.5495
         843      1852.6610      1756.6491      1756.6491         0.5512
         844       841.9048      1768.5141      1768.5140         0.5533
         845      2929.2670      1780.4589      1780.4588         0.5556
         846      4411.1190      1792.4342      1792.4341         0.5581
         847      1759.7400      1804.5083      1804.5082         0.5609
         848     -4368.8320      1816.6301      1816.6300         0.5639
         849      1755.7310      1828.8496      1828.8495         0.5673
         850      -426.6953      1841.1484      1841.1483         0.5708
         851     -1271.6580      1853.4747      1853.4746         0.5746
         852     -2911.2790      1865.9162      1865.9162         0.5787
         853     -2497.6240      1878.4367      1878.4366         0.5830
         854       111.0708      1891.0018      1891.0017         0.5876
         855     -1802.0110      1903.6618      1903.6617         0.5923
         856      4108.6670      1916.3680      1916.3679         0.5973
         857     -2624.5750      1929.1642      1929.1642         0.6026
         858     -3160.9230      1942.0572      1942.0571         0.6081
         859      2236.0360      1954.9762      1954.9761         0.6137
         860      1322.4530      1968.0079      1968.0078         0.6197
         861      1495.2500      1981.0645      1981.0644         0.6258
         862      3517.8940      1994.2263      1994.2262         0.6321
         863        86.1742      2007.4817      2007.4816         0.6387
         864      6461.3710      2020.8369      2020.8368         0.6455
         865     -3750.1890      2034.2252      2034.2251         0.6525
         866      1408.6410      2047.7057      2047.7056         0.6597
         867      3054.7080      2061.2407      2061.2406         0.6671
         868     -2954.0410      2074.9053      2074.9052         0.6747
         869       579.4387      2088.5680      2088.5679         0.6825
         870     -8320.5620      2102.3914      2102.3913         0.6905
         871      -743.3765      2116.2561      2116.2560         0.6987
         872      1774.9080      2130.2043      2130.2042         0.7071
         873      6454.5900      2144.1907      2144.1906         0.7157
         874     -2237.3050      2158.3531      2158.3530         0.7244
         875      1185.5290      2172.5323      2172.5322         0.7334
         876      -977.0998      2186.7587      2186.7586         0.7425
         877      1521.2050      2201.1483      2201.1482         0.7517
         878      3778.0210      2215.5836      2215.5835         0.7611
         879       567.5908      2230.1048      2230.1047         0.7707
         880     -2507.3480      2244.6603      2244.6602         0.7804
         881       409.5245      2259.3298      2259.3296         0.7902
         882     -1984.9350      2274.1463      2274.1461         0.8002
         883     -1069.9640      2288.9473      2288.9472         0.8104
         884      1054.2260      2303.9086      2303.9085         0.8206
         885     -1686.3000      2318.9102      2318.9101         0.8310
         886     -1706.2390      2334.0137      2334.0136         0.8416
         887     -7011.3980      2349.1448      2349.1447         0.8522
         888        43.5193      2364.4455      2364.4453         0.8630
         889      6063.8880      2379.7739      2379.7737         0.8739
         890      1503.6790      2395.2142      2395.2141         0.8849
         891      -741.9914      2410.7540      2410.7539         0.8960
         892     -2948.9430      2426.3288      2426.3287         0.9072
         893      4014.5880      2442.0008      2442.0007         0.9185
         894     -1947.3820      2457.8467      2457.8465         0.9299
         895     -2356.4530      2473.6526      2473.6524         0.9414
         896      -706.1244      2489.6277      2489.6275         0.9529
         897     -2166.0920      2505.6980      2505.6978         0.9646
         898      4572.7930      2521.8186      2521.8184         0.9763
         899      4772.9730      2538.0311      2538.0309         0.9880
         900      2860.6200      2554.3530      2554.3528         0.9998
         901      2255.4930      2570.7060      2570.7058         1.0117
         902      4289.5410      2587.2139      2587.2137         1.0236
         903     -1124.3240      2603.7647      2603.7645         1.0355
         904       125.8998      2620.4230      2620.4228         1.0475
         905     -1987.5840      2637.1726      2637.1724         1.0595
         906     -5569.6010      2654.0365      2654.0363         1.0715
         907     -1414.9210      2670.9968      2670.9966         1.0836
         908      4512.8970      2687.9813      2687.9811         1.0956
         909       132.3837      2705.1454      2705.1452         1.1077
         910     -4428.7570      2722.3370      2722.3368         1.1198
         911     -1092.8660      2739.6436      2739.6433         1.1318
         912        11.2486      2757.0382      2757.0379         1.1439
         913      1926.1390      2774.5456      2774.5453         1.1560
         914     -6027.5190      2792.1543      2792.1540         1.1681
         915     -3158.1070      2809.7871      2809.7869         1.1800
         916       627.9064      2827.5938      2827.5936         1.1921
         917       836.7566      2845.5136      2845.5133         1.2041
         918      -479.8021      2863.4670      2863.4667         1.2160
         919      4383.7040      2881.5188      2881.5185         1.2280
         920      -753.5755      2899.6693      2899.6691         1.2398
         921      3608.4770      2917.9925      2917.9922         1.2517
         922      -169.3455      2936.3587      2936.3584         1.2635
         923     -4016.6340      2954.8213      2954.8210         1.2751
         924     -2079.2440      2973.3916      2973.3913         1.2868
         925     -3177.4920      2992.0697      2992.0695         1.2984
         926     -1403.5140      3010.7756      3010.7753         1.3099
         927     -4329.3710      3029.6641      3029.6639         1.3213
         928     -3138.8650      3048.6465      3048.6462         1.3327
         929      3742.1840      3067.7456      3067.7453         1.3440
         930     -1237.2480      3086.9474      3086.9471         1.3551
         931     -5810.5810      3106.1850      3106.1847         1.3662
         932       216.9921      3125.5945      3125.5942         1.3772
         933     -3900.1610      3145.1172      3145.1169         1.3881
         934      2984.1020      3164.6723      3164.6720         1.3988
         935      1894.1860      3184.3972      3184.3969         1.4095
         936     -4135.5420      3204.2434      3204.2431         1.4200
         937      1606.4580      3224.1914      3224.1911         1.4304
         938      1398.8490      3244.2477      3244.2473         1.4407
         939     -1034.8830      3264.3345      3264.3342         1.4508
         940     -2871.0740      3284.6096      3284.6093         1.4608
         941     -2040.4710      3305.0609      3305.0606         1.4707
         942      2514.6080      3325.5521      3325.5517         1.4804
         943       366.0285      3346.1580      3346.1577         1.4900
         944       835.1704      3366.8609      3366.8606         1.4994
         945     -4062.2780      3387.6780      3387.6777         1.5086
         946     -2007.1390      3408.6803      3408.6800         1.5177
         947       356.8578      3429.7245      3429.7242         1.5267
         948    -12952.4900      3450.9450      3450.9446         1.5355
         949      -135.9987      3472.2129      3472.2126         1.5440
         950     -1803.9490      3493.6551      3493.6547         1.5524
         951      1208.5840      3515.2168      3515.2165         1.5607
         952     -1281.7270      3536.9606      3536.9603         1.5687
         953       208.2408      3558.7422      3558.7418         1.5766
         954      1913.6400      3580.6385      3580.6381         1.5843
         955      4787.7970      3602.7169      3602.7166         1.5918
         956       178.5815      3624.9089      3624.9086         1.5990
         957      1608.5780      3647.2247      3647.2243         1.6061
         958      5305.9820      3669.6452      3669.6448         1.6130
         959      3969.1390      3692.1793      3692.1789         1.6197
         960      7696.6960      3714.8980      3714.8976         1.6262
         961     -2778.3740      3737.7442      3737.7438         1.6325
         962     -2875.6870      3760.6924      3760.6920         1.6386
         963      1892.4590      3783.7586      3783.7583         1.6443
         964     -4627.7050      3807.0154      3807.0150         1.6501
         965      7849.1480      3830.3878      3830.3874         1.6555
         966     -5251.1580      3853.8740      3853.8736         1.6606
         967     -3404.0430      3877.5503      3877.5500         1.6658
         968     -2323.2130      3901.2714      3901.2710         1.6705
         969      1898.9750      3925.1786      3925.1782         1.6750
         970     -2091.8200      3949.2799      3949.2795         1.6794
         971      1251.9160      3973.4922      3973.4919         1.6835
         972      5278.7300      3997.8259      3997.8256         1.6875
         973      6918.2020      4022.2647      4022.2644         1.6912
         974      5229.3940      4046.9179      4046.9176         1.6945
         975     -3265.1560      4071.6788      4071.6784         1.6977
         976      3222.4390      4096.6236      4096.6232         1.7007
         977       144.8265      4121.6749      4121.6745         1.7035
         978     -1838.9970      4146.9640      4146.9637         1.7061
         979       390.8290      4172.3007      4172.3003         1.7083
         980      5346.9170      4197.8020      4197.8016         1.7103
         981      -118.4319      4223.4817      4223.4813         1.7121
         982     -4647.1620      4249.2645      4249.2641         1.7138
         983        90.4948      4275.2840      4275.2837         1.7151
         984     -9940.1100      4301.4814      4301.4811         1.7162
         985     -7775.0260      4327.7037      4327.7034         1.7171
         986     -1451.6710      4354.1769      4354.1766         1.7178
         987      4230.4010      4380.8071      4380.8068         1.7181
         988      3516.4880      4407.5317      4407.5314         1.7183
         989     -2372.8190      4434.5658      4434.5654         1.7183
         990      1754.8780      4461.6971      4461.6967         1.7180
         991     -4208.5820      4488.9232      4488.9228         1.7174
         992      6829.7150      4516.3249      4516.3245         1.7166
         993      7318.3380      4544.0044      4544.0041         1.7157
         994      2349.0090      4571.7204      4571.7200         1.7144
         995     -1541.9590      4599.6669      4599.6665         1.7129
         996      -816.9665      4627.7810      4627.7807         1.7111
         997     -2652.2240      4656.1174      4656.1171         1.7093
         998     -6235.4600      4684.5960      4684.5956         1.7071
         999     -1105.3620      4713.2417      4713.2414         1.7046
        1000     -2380.6510      4742.0633      4742.0630         1.7019
        1001     -4804.8380      4771.0992      4771.0989         1.6991
        1002     -3040.4880      4800.2696      4800.2693         1.6960
        1003      6802.0710      4829.6909      4829.6906         1.6926
        1004      4665.3410      4859.2472      4859.2470         1.6890
        1005     -1424.9460      4888.9717      4888.9714         1.6853
        1006      1568.8920      4918.9099      4918.9096         1.6812
        1007      4134.6080      4949.0573      4949.0570         1.6769
        1008     -2355.1680      4979.3742      4979.3739         1.6725
        1009      6135.2990      5009.9025      5009.9022         1.6678
        1010     -2563.7900      5040.6382      5040.6380         1.6629
        1011     -7660.7370      5071.5872      5071.5869         1.6578
        1012      8215.6420      5102.6986      5102.6983         1.6526
        1013     -3415.9180      5134.0197      5134.0195         1.6471
        1014     -7588.3530      5165.5464      5165.5461         1.6414
        1015     -6219.4350      5197.2790      5197.2787         1.6356
        1016      4920.1530      5229.2150      5229.2148         1.6295
        1017      4451.5610      5261.3997      5261.3995         1.6234
        1018    -11402.5200      5293.7029      5293.7026         1.6169
        1019     -3593.4950      5326.3323      5326.3320         1.6102
        1020      4280.3190      5359.1265      5359.1263         1.6034
        1021      3161.8310      5392.1221      5392.1219         1.5963
        1022     -2443.5280      5425.3182      5425.3180         1.5890
        1023     -1650.3860      5458.7992      5458.7990         1.5817
        1024    -11060.4400      5492.4790      5492.4788         1.5740
